File: thermodynamics/5capacity/ExpDat_00089_CaC2O4_5_30-300_Al2O3-lids_Air-30-10_TGA.txt
#EXPORTTYPE:DATA ALL
#FILE:ExpDat_00094_CaC2O4_5_1000_Al2O3-lids_Air-30-10_TGA.imp
#FORMAT:NETZSCH5
#FTYPE:ASCII
#IDENTITY:ExpDat_00094_CaC2O4_5_1000_Al2O
#DECIMAL:POINT
#SEPARATOR:SEMICOLON
#MTYPE:TG
#INSTRUMENT:IMPORTED TG
#PROJECT:
#DATE/TIME:30.09.2008 10:08
#CORR. FILE:
#TEMPCAL:---
#LABORATORY:
#OPERATOR:
#REMARK:
#SAMPLE:
#SAMPLE MASS /mg:18.516
#MATERIAL:
#REFERENCE:
#REFERENCE MASS /mg:
#TYPE OF CRUCIBLE:
#SAMPLE CRUCIBLE MASS /mg:0.000
#REFERENCE CRUCIBLE MASS /mg:
#PROTECTIVE GAS:
#FLOW RATE:
#PURGE GAS 1:
#FLOW RATE 1:
#PURGE GAS 2:
#FLOW RATE 2:
#M.RANGE /mg:0
#CORR. CODE:600
#RANGE:30oC/5.0(K/min)/1000oC
#SEGMENT:S1/1
#SEG. 1:30oC/5.0(K/min)/1000oC

##Temp./oC;Time/min;Mass/%;DTG/(%/min)
 30.09999; 0.00000;100; 6.1895e-002
 31.59999; 0.30003;100.005;-1.4980e-002
 33.09999; 0.60006;100.001;-1.3154e-002
 34.59999; 0.90009; 99.99670;-1.7819e-002
 36.09999; 1.20012; 99.99048;-2.2269e-002
 37.59999; 1.50015; 99.98460;-1.4795e-002
 39.09999; 1.80019; 99.98208;-2.6045e-003
 40.59999; 2.10022; 99.98162;-4.3076e-003
 42.09999; 2.40025; 99.97797;-2.0517e-002
 43.59999; 2.70028; 99.97015;-2.9317e-002
 45.09999; 3.00031; 99.96124;-2.9121e-002
 46.59999; 3.30034; 99.95337;-2.1945e-002
 48.09999; 3.60037; 99.94834;-1.2122e-002
 49.59999; 3.90040; 99.94548;-7.5317e-003
 51.09999; 4.20043; 99.94373;-4.6474e-003
 52.59999; 4.50046; 99.94206;-7.5009e-003
 54.09999; 4.80050; 99.93942;-9.0021e-003
 55.59999; 5.10053; 99.93667;-1.1035e-002
 57.09999; 5.40056; 99.93204;-1.8983e-002
 58.59999; 5.70059; 99.92688;-1.1445e-002
 60.09999; 6.00062; 99.92598; 3.7579e-003
 61.59999; 6.30065; 99.92741; 2.8242e-003
 63.09999; 6.60068; 99.92736;-1.9856e-003
 64.59999; 6.90071; 99.92698; 7.9683e-005
 66.09999; 7.20074; 99.92726; 5.4750e-004
 67.59999; 7.50077; 99.92598;-1.2214e-002
 69.09999; 7.80080; 99.91897;-3.3337e-002
 70.59999; 8.10084; 99.90809;-3.4045e-002
 72.09999; 8.40087; 99.90007;-1.9535e-002
 73.59999; 8.70090; 99.89546;-1.3089e-002
 75.09999; 9.00093; 99.89205;-8.7394e-003
 76.59999; 9.30096; 99.89110; 4.4100e-003
 78.09999; 9.60099; 99.89489; 1.8638e-002
 79.59999; 9.90102; 99.89987; 9.0551e-003
 81.09999;10.20105; 99.89884;-1.4761e-002
 82.59999;10.50108; 99.89329;-1.7084e-002
 84.09999;10.80111; 99.88999;-5.7538e-003
 85.59999;11.10114; 99.88838;-8.0617e-003
 87.09999;11.40118; 99.88438;-1.7723e-002
 88.59999;11.70121; 99.87919;-1.3384e-002
 90.09999;12.00124; 99.87743; 6.8206e-004
 91.59999;12.30127; 99.87787;-1.4851e-003
 93.09999;12.60130; 99.87572;-1.2058e-002
 94.59999;12.90133; 99.87153;-1.4637e-002
 96.09999;13.20136; 99.86706;-1.5137e-002
 97.59999;13.50139; 99.86280;-1.2198e-002
 99.09999;13.80142; 99.85999;-7.3246e-003
100.6;14.10145; 99.85739;-1.2053e-002
102.1;14.40148; 99.85245;-1.9699e-002
103.6;14.70152; 99.84657;-1.7885e-002
105.1;15.00155; 99.84199;-1.2548e-002
106.6;15.30158; 99.83917;-6.1199e-003
108.1;15.60161; 99.83813;-1.8950e-003
109.6;15.90164; 99.83738;-4.6817e-003
111.1;16.20167; 99.83435;-1.6956e-002
112.6;16.50170; 99.82738;-2.6932e-002
114.1;16.80173; 99.81998;-2.0053e-002
115.6;17.10176; 99.81517;-1.4441e-002
117.1;17.40179; 99.81012;-2.0673e-002
118.6;17.70183; 99.80257;-2.9206e-002
120.1;18.00186; 99.79342;-2.9174e-002
121.6;18.30189; 99.78613;-1.9320e-002
123.1;18.60192; 99.78063;-2.0761e-002
124.6;18.90195; 99.77262;-3.2474e-002
126.1;19.20198; 99.76185;-3.7704e-002
127.6;19.50201; 99.75050;-3.7549e-002
129.1;19.80204; 99.73931;-3.7606e-002
130.6;20.10207; 99.72752;-4.1612e-002
132.1;20.40210; 99.71422;-4.7142e-002
133.6;20.70214; 99.69911;-5.3978e-002
135.1;21.00217; 99.68180;-6.1061e-002
136.6;21.30220; 99.66236;-6.9695e-002
138.1;21.60223; 99.63921;-8.5133e-002
139.6;21.90226; 99.61208;-9.2703e-002
141.1;22.20229; 99.58483;-8.8421e-002
142.6;22.50232; 99.55841;-8.9527e-002
144.1;22.80235; 99.53047;-9.7884e-002
145.6;23.10238; 99.49879;    -0.11526
147.1;23.40241; 99.46077;    -0.13754
148.6;23.70244; 99.41710;    -0.15226
150.1;24.00247; 99.36938;    -0.16673
151.6;24.30250; 99.31675;    -0.18413
153.1;24.60254; 99.25885;    -0.20250
154.6;24.90257; 99.19467;    -0.22626
156.1;25.20260; 99.12292;    -0.25207
157.6;25.50263; 99.04331;    -0.27866
159.1;25.80266; 98.95593;    -0.30291
160.6;26.10269; 98.86189;    -0.32383
162.1;26.40272; 98.76142;    -0.34676
163.6;26.70275; 98.65310;    -0.37692
165.1;27.00278; 98.53451;    -0.41478
166.6;27.30281; 98.40373;    -0.45750
168.1;27.60285; 98.26011;    -0.49899
169.6;27.90288; 98.10446;    -0.53970
171.1;28.20291; 97.93522;    -0.58955
172.6;28.50294; 97.75142;    -0.63250
174.1;28.80297; 97.55663;    -0.66758
175.6;29.10300; 97.34847;    -0.72456
177.1;29.40303; 97.12133;    -0.78760
178.6;29.70306; 96.87689;    -0.84212
180.1;30.00309; 96.61559;    -0.89909
181.6;30.30312; 96.33781;    -0.95369
183.1;30.60316; 96.04184;    -1.02168
184.6;30.90319; 95.72504;    -1.08851
186.1;31.20322; 95.38745;    -1.16771
187.6;31.50325; 95.02239;    -1.26484
189.1;31.80328; 94.63057;    -1.34406
190.6;32.10331; 94.21541;    -1.42659
192.1;32.40334; 93.77405;    -1.51333
193.6;32.70337; 93.30929;    -1.58118
195.1;33.00340; 92.82574;    -1.64510
196.6;33.30343; 92.31941;    -1.73633
198.1;33.60346; 91.78251;    -1.83994
199.6;33.90350; 91.21835;    -1.91267
201.1;34.20353; 90.63919;    -1.94151
202.6;34.50356; 90.05609;    -1.94230
204.1;34.80359; 89.47638;    -1.91224
205.6;35.10362; 88.91716;    -1.79193
207.1;35.40365; 88.41701;    -1.50586
208.6;35.70368; 88.03099;    -1.04334
210.1;36.00371; 87.79264;    -0.56353
211.6;36.30374; 87.67630;    -0.25067
213.1;36.60377; 87.62537;    -0.11391
214.6;36.90381; 87.59984;-6.5105e-002
216.1;37.20384; 87.58397;-4.3216e-002
217.6;37.50387; 87.57296;-3.1540e-002
219.1;37.80390; 87.56504;-2.0114e-002
220.6;38.10393; 87.56118;-6.0654e-003
222.1;38.40396; 87.56078; 1.4510e-003
223.6;38.70399; 87.56076;-4.2970e-003
225.1;39.00402; 87.55744;-1.7081e-002
226.6;39.30405; 87.55173;-1.8272e-002
228.1;39.60408; 87.54742;-1.0060e-002
229.6;39.90412; 87.54517;-6.8883e-003
231.1;40.20415; 87.54257;-1.0491e-002
232.6;40.50418; 87.53941;-9.5804e-003
234.1;40.80421; 87.53706;-5.9170e-003
235.6;41.10424; 87.53627; 1.9941e-003
237.1;41.40427; 87.53841; 1.0778e-002
238.6;41.70430; 87.54121; 4.8805e-003
240.1;42.00433; 87.54071;-7.4412e-003
241.6;42.30436; 87.53785;-9.1978e-003
243.1;42.60439; 87.53605;-2.2120e-003
244.6;42.90442; 87.53652; 4.9967e-003
246.1;43.20446; 87.53880; 9.1290e-003
247.6;43.50449; 87.54083; 1.8032e-003
249.1;43.80452; 87.53921;-1.1934e-002
250.6;44.10455; 87.53489;-1.3700e-002
252.1;44.40458; 87.53228;-2.5968e-003
253.6;44.70461; 87.53300; 5.2298e-003
255.1;45.00464; 87.53435; 2.4853e-003
256.6;45.30467; 87.53440;-1.7212e-003
258.1;45.60470; 87.53350;-4.3761e-003
259.6;45.90473; 87.53123;-1.2451e-002
261.1;46.20476; 87.52574;-2.2614e-002
262.6;46.50479; 87.51936;-1.6125e-002
264.1;46.80482; 87.51716; 1.0739e-003
265.6;47.10485; 87.51898; 8.8613e-003
267.1;47.40489; 87.52205; 1.2075e-002
268.6;47.70492; 87.52622; 1.4002e-002
270.1;48.00495; 87.52909; 3.0802e-003
271.6;48.30498; 87.52837;-5.1445e-003
273.1;48.60501; 87.52718;-2.3532e-003
274.6;48.90504; 87.52612;-6.8802e-003
276.1;49.20507; 87.52278;-1.4110e-002
277.6;49.50510; 87.51889;-9.6138e-003
279.1;49.80513; 87.51730;-2.3861e-003
280.6;50.10516; 87.51647;-4.2123e-003
282.1;50.40520; 87.51512;-2.9743e-003
283.6;50.70523; 87.51537; 4.7228e-003
285.1;51.00526; 87.51711; 3.7491e-003
286.6;51.30529; 87.51620;-1.0757e-002
288.1;51.60532; 87.51177;-1.4465e-002
289.6;51.90535; 87.50943; 1.3000e-004
291.1;52.20538; 87.51091; 6.3307e-003
292.6;52.50541; 87.51163;-3.7178e-003
294.1;52.80544; 87.50842;-1.6136e-002
295.6;53.10547; 87.50358;-1.2403e-002
297.1;53.40551; 87.50214; 2.6258e-003
298.6;53.70554; 87.50408; 7.2062e-003
299.6;53.90556; 87.50506; 1.4928e-003