File: thermodynamics/5capacity/ExpDat_00089_CaC2O4_10_30-300_Al2O3-lids_Air-30-10_TGA.txt
#EXPORTTYPE:DATA ALL
#FILE:ExpDat_00090_CaC2O4_10_1000_Al2O3-lids_Air-30-10_TGA.imp
#FORMAT:NETZSCH5
#FTYPE:ASCII
#IDENTITY:ExpDat_00090_CaC2O4_10_1000_Al2
#DECIMAL:POINT
#SEPARATOR:SEMICOLON
#MTYPE:TG
#INSTRUMENT:IMPORTED TG
#PROJECT:
#DATE/TIME:26.09.2008 09:56
#CORR. FILE:
#TEMPCAL:---
#LABORATORY:
#OPERATOR:
#REMARK:
#SAMPLE:
#SAMPLE MASS /mg:19.604
#MATERIAL:
#REFERENCE:
#REFERENCE MASS /mg:
#TYPE OF CRUCIBLE:
#SAMPLE CRUCIBLE MASS /mg:0.000
#REFERENCE CRUCIBLE MASS /mg:
#PROTECTIVE GAS:
#FLOW RATE:
#PURGE GAS 1:
#FLOW RATE 1:
#PURGE GAS 2:
#FLOW RATE 2:
#M.RANGE /mg:0
#CORR. CODE:600
#RANGE:30oC/10.0(K/min)/1000oC
#SEGMENT:S1/1
#SEG. 1:30oC/10.0(K/min)/1000oC

##Temp./oC;Time/min;Mass/%;DTG/(%/min)
 30.22167; 0.10300;100;-2.9217e-013
 31.72167; 1.58818;100.014; 1.6862e-002
 33.22167; 2.01715;100.03; 3.5278e-002
 34.72167; 2.34124;100.03;-2.1643e-002
 36.22167; 2.61220;100.025; 7.9617e-004
 37.72167; 2.84900;100.031; 2.9848e-002
 39.22167; 3.06262;100.035; 1.6377e-002
 40.72167; 3.25996;100.04; 3.7980e-002
 42.22167; 3.44447;100.047; 3.2039e-002
 43.72167; 3.61925;100.051; 1.7472e-002
 45.22167; 3.78573;100.054; 8.9162e-003
 46.72167; 3.94588;100.054;-7.6181e-003
 48.22167; 4.10031;100.051;-2.3470e-002
 49.72167; 4.24959;100.047;-3.0298e-002
 51.22167; 4.39469;100.043;-1.9463e-002
 52.72167; 4.53635;100.043; 1.5207e-002
 54.22167; 4.67487;100.047; 4.6424e-002
 55.72167; 4.81041;100.054; 4.6202e-002
 57.22167; 4.94348;100.059; 2.1165e-002
 58.72167; 5.07427;100.059;-1.2836e-002
 60.22167; 5.20319;100.056;-3.2076e-002
 61.72167; 5.33076;100.052;-2.7066e-002
 63.22167; 5.45711;100.049;-1.1857e-002
 64.72167; 5.58224;100.049; 6.2750e-003
 66.22167; 5.70643;100.051; 1.9966e-002
 67.72167; 5.82970;100.054; 2.0387e-002
 69.22167; 5.95211;100.055; 6.8769e-003
 70.72167; 6.07394;100.055;-1.6730e-002
 72.22167; 6.19525;100.051;-4.1276e-002
 73.72167; 6.31596;100.046;-4.6847e-002
 75.22167; 6.43617;100.041;-2.3930e-002
 76.72167; 6.55590;100.04; 6.7306e-003
 78.22167; 6.67518;100.042; 2.2401e-002
 79.72167; 6.79423;100.045; 2.7362e-002
 81.22167; 6.91310;100.048; 2.9311e-002
 82.72167; 7.03165;100.052; 2.4197e-002
 84.22167; 7.14994;100.054; 1.3276e-002
 85.72167; 7.26804;100.055; 5.3759e-003
 87.22167; 7.38595;100.055;-2.2019e-003
 88.72167; 7.50378;100.054;-1.8811e-002
 90.22167; 7.62159;100.051;-3.5691e-002
 91.72167; 7.73928;100.046;-3.9565e-002
 93.22167; 7.85693;100.042;-3.6074e-002
 94.72167; 7.97480;100.038;-3.5919e-002
 96.22167; 8.09297;100.033;-3.8847e-002
 97.72167; 8.21133;100.028;-4.1205e-002
 99.22167; 8.32991;100.023;-4.2634e-002
100.722; 8.44868;100.018;-4.2159e-002
102.222; 8.56777;100.013;-3.9619e-002
103.722; 8.68749;100.009;-3.6443e-002
105.222; 8.80774;100.005;-2.9905e-002
106.722; 8.92829;100.002;-1.8445e-002
108.222; 9.04919;100;-9.5487e-003
109.722; 9.17062; 99.99916;-1.1926e-002
111.222; 9.29262; 99.99713;-2.1514e-002
112.722; 9.41499; 99.99414;-2.4806e-002
114.222; 9.53763; 99.99153;-1.6157e-002
115.722; 9.66087; 99.99016;-7.4838e-003
117.222; 9.78475; 99.98925;-1.0162e-002
118.722; 9.90907; 99.98703;-2.8153e-002
120.222;10.03347; 99.98206;-5.0232e-002
121.722;10.15803; 99.97520;-5.6113e-002
123.222;10.28309; 99.96842;-5.2728e-002
124.722;10.40844; 99.96167;-5.6385e-002
126.222;10.53421; 99.95425;-6.0741e-002
127.722;10.66039; 99.94657;-6.1175e-002
129.222;10.78675; 99.93864;-6.5992e-002
130.722;10.91364; 99.92945;-8.0156e-002
132.222;11.04111; 99.91815;-9.5989e-002
133.722;11.16881; 99.90546;-9.9979e-002
135.222;11.29679; 99.89280;-9.9354e-002
136.722;11.42516; 99.87945;    -0.11099
138.222;11.55377; 99.86409;    -0.12698
139.722;11.68298; 99.84700;    -0.13583
141.222;11.81274; 99.82937;    -0.13315
142.722;11.94285; 99.81279;    -0.12105
144.222;12.07328; 99.79739;    -0.12022
145.722;12.20408; 99.77974;    -0.15802
147.222;12.33541; 99.75492;    -0.21838
148.722;12.46712; 99.72401;    -0.24018
150.222;12.59922; 99.69301;    -0.22876
151.722;12.73199; 99.66242;    -0.23781
153.222;12.86546; 99.62892;    -0.26513
154.722;12.99955; 99.59144;    -0.29412
156.222;13.13414; 99.54963;    -0.32818
157.722;13.26913; 99.50294;    -0.36233
159.222;13.40469; 99.45194;    -0.38915
160.722;13.54078; 99.39724;    -0.41520
162.222;13.67755; 99.33844;    -0.44558
163.722;13.81464; 99.27487;    -0.48412
165.222;13.95181; 99.20491;    -0.54020
166.722;14.08957; 99.12534;    -0.61885
168.222;14.22791; 99.03335;    -0.71232
169.722;14.36662; 98.92823;    -0.79898
171.222;14.50561; 98.81325;    -0.84680
172.722;14.64476; 98.69396;    -0.86733
174.222;14.78434; 98.57061;    -0.90612
175.722;14.92405; 98.43962;    -0.97351
177.222;15.06372; 98.29798;    -1.05527
178.722;15.20371; 98.14486;    -1.12901
180.222;15.34386; 97.98231;    -1.19015
181.722;15.48410; 97.81052;    -1.26551
183.222;15.62486; 97.62464;    -1.38738
184.722;15.76602; 97.41690;    -1.55804
186.222;15.90728; 97.18720;    -1.67466
187.722;16.04844; 96.94762;    -1.71630
189.222;16.19004; 96.70022;    -1.78669
190.722;16.33207; 96.43969;    -1.88406
192.222;16.47426; 96.16390;    -2.00002
193.722;16.61678; 95.86992;    -2.12032
195.222;16.75967; 95.56028;    -2.21008
196.722;16.90296; 95.23682;    -2.31241
198.222;17.04657; 94.89474;    -2.45644
199.722;17.19029; 94.53067;    -2.60801
201.222;17.33437; 94.14490;    -2.74282
202.722;17.47871; 93.74061;    -2.85549
204.222;17.62300; 93.32071;    -2.96867
205.722;17.76750; 92.88230;    -3.09980
207.222;17.91209; 92.42555;    -3.21099
208.722;18.05665; 91.95511;    -3.29675
210.222;18.20154; 91.47065;    -3.39184
211.722;18.34650; 90.97327;    -3.45910
213.222;18.49134; 90.47140;    -3.45920
214.722;18.63599; 89.97418;    -3.40619
216.222;18.78042; 89.48939;    -3.29290
217.722;18.92423; 89.02937;    -3.08061
219.222;19.06721; 88.61311;    -2.70328
220.722;19.20896; 88.26972;    -2.09704
222.222;19.34870; 88.02852;    -1.34818
223.722;19.48645; 87.88951;    -0.71214
225.222;19.62260; 87.82130;    -0.33859
226.722;19.75792; 87.78834;    -0.17886
228.222;19.89349; 87.76837;    -0.12714
229.722;20.02946; 87.75285;    -0.10075
231.222;20.16620; 87.74122;-6.9113e-002
232.722;20.30429; 87.73359;-4.3605e-002
234.222;20.44363; 87.72869;-2.8796e-002
235.722;20.58387; 87.72497;-2.6376e-002
237.222;20.72481; 87.72118;-2.5861e-002
238.722;20.86675; 87.71818;-1.5223e-002
240.222;21.00985; 87.71669;-7.2135e-003
241.722;21.15377; 87.71582;-4.7333e-003
243.222;21.29785; 87.71554; 1.2912e-003
244.722;21.44284; 87.71600; 3.1413e-003
246.222;21.58890; 87.71590;-6.4701e-003
247.722;21.73534; 87.71387;-2.0715e-002
249.222;21.88224; 87.71046;-2.1925e-002
250.722;22.02940; 87.70800;-1.2403e-002
252.222;22.17699; 87.70591;-1.9844e-002
253.722;22.32500; 87.70185;-3.3134e-002
255.222;22.47324; 87.69677;-3.3791e-002
256.722;22.62158; 87.69197;-3.0197e-002
258.222;22.76984; 87.68824;-1.8384e-002
259.722;22.91830; 87.68657;-5.5119e-003
261.222;23.06698; 87.68609;-2.8753e-003
262.722;23.21592; 87.68521;-1.1129e-002
264.222;23.36479; 87.68242;-2.6312e-002
265.722;23.51353; 87.67776;-3.4240e-002
267.222;23.66247; 87.67264;-3.3276e-002
268.722;23.81141; 87.66822;-2.5158e-002
270.222;23.96028; 87.66494;-2.1324e-002
271.722;24.10946; 87.66132;-2.7019e-002
273.222;24.25883; 87.65738;-2.3295e-002
274.722;24.40823; 87.65469;-1.2126e-002
276.222;24.55749; 87.65385; 3.2123e-004
277.722;24.70654; 87.65425; 1.3583e-003
279.222;24.85557; 87.65339;-1.4668e-002
280.722;25.00467; 87.65006;-2.6931e-002
282.222;25.15407; 87.64618;-2.2328e-002
283.722;25.30376; 87.64402;-3.2707e-003
285.222;25.45333; 87.64588; 2.7860e-002
286.722;25.60286; 87.65120; 3.6851e-002
288.222;25.75240; 87.65605; 2.8707e-002
289.722;25.90205; 87.66017; 2.6261e-002
291.222;26.05150; 87.66325; 1.2201e-002
292.722;26.20110; 87.66376;-2.6517e-003
294.222;26.35077; 87.66351; 1.9963e-003
295.722;26.50020; 87.66423; 4.5679e-003
297.222;26.64987; 87.66402;-9.0399e-003
298.722;26.79943; 87.66195;-1.4059e-002
299.722;26.89905; 87.66099;-3.3798e-003