File: thermodynamics/5capacity/ExpDat_00089_CaC2O4_20_30-300_Al2O3-lids_Air-30-10_TGA.txt
#EXPORTTYPE:DATA ALL
#FILE:ExpDat_00089_CaC2O4_20_1000_Al2O3-lids_Air-30-10_TGA.imp
#FORMAT:NETZSCH5
#FTYPE:ASCII
#IDENTITY:ExpDat_00089_CaC2O4_20_1000_Al2
#DECIMAL:POINT
#SEPARATOR:SEMICOLON
#MTYPE:TG
#INSTRUMENT:IMPORTED TG
#PROJECT:
#DATE/TIME:25.09.2008 14:22
#CORR. FILE:
#TEMPCAL:---
#LABORATORY:
#OPERATOR:
#REMARK:
#SAMPLE:
#SAMPLE MASS /mg:21.348
#MATERIAL:
#REFERENCE:
#REFERENCE MASS /mg:
#TYPE OF CRUCIBLE:
#SAMPLE CRUCIBLE MASS /mg:0.000
#REFERENCE CRUCIBLE MASS /mg:
#PROTECTIVE GAS:
#FLOW RATE:
#PURGE GAS 1:
#FLOW RATE 1:
#PURGE GAS 2:
#FLOW RATE 2:
#M.RANGE /mg:0
#CORR. CODE:600
#RANGE:30oC/20.1(K/min)/1000oC
#SEGMENT:S1/1
#SEG. 1:30oC/20.1(K/min)/1000oC

##Temp./oC;Time/min;Mass/%;DTG/(%/min)
 30.18800; 0.22000;100; 1.0605e-012
 31.68800; 1.10448; 99.99102;-5.4969e-002
 33.18800; 1.39032;100.004; 1.4376e-002
 34.68800; 1.60882;100.007; 1.3099e-002
 36.18800; 1.79217;100.006;-2.8499e-002
 37.68800; 1.95204;100.003; 1.4204e-003
 39.18800; 2.09432;100.005; 2.1509e-002
 40.68800; 2.22325;100.007; 3.9233e-004
 42.18800; 2.34216;100.006;-1.2802e-002
 43.68800; 2.45334;100.003;-4.3102e-002
 45.18800; 2.55867; 99.99766;-4.3942e-002
 46.68800; 2.65875; 99.99489;-1.4730e-002
 48.18800; 2.75480; 99.99401;-9.9636e-004
 49.68800; 2.84732; 99.99521; 2.3998e-002
 51.18800; 2.93684; 99.99681; 5.2416e-003
 52.68800; 3.02374; 99.99634;-1.1558e-002
 54.18800; 3.10824; 99.99544;-8.1871e-003
 55.68800; 3.19062; 99.99483;-8.9852e-003
 57.18800; 3.27126; 99.99366;-2.0705e-002
 58.68800; 3.34998; 99.99158;-3.1096e-002
 60.18800; 3.42681; 99.98900;-3.5176e-002
 61.68800; 3.50223; 99.98646;-2.9860e-002
 63.18800; 3.57630; 99.98451;-2.5563e-002
 64.68800; 3.64926; 99.98228;-3.8016e-002
 66.18800; 3.72106; 99.97928;-4.0401e-002
 67.68800; 3.79189; 99.97707;-1.8835e-002
 69.18800; 3.86183; 99.97655; 1.1403e-003
 70.68800; 3.93095; 99.97676; 1.6427e-003
 72.18800; 3.99944; 99.97673; 1.6583e-004
 73.68800; 4.06708; 99.97720; 1.5985e-002
 75.18800; 4.13387; 99.97863; 2.2273e-002
 76.68800; 4.20009; 99.97943;-3.4467e-003
 78.18800; 4.26595; 99.97796;-3.8249e-002
 79.68800; 4.33128; 99.97525;-3.5595e-002
 81.18800; 4.39603; 99.97392;-5.7447e-003
 82.68800; 4.46023; 99.97389;-3.3983e-003
 84.18800; 4.52392; 99.97286;-3.1681e-002
 85.68800; 4.58715; 99.96998;-5.6236e-002
 87.18800; 4.64986; 99.96619;-5.9362e-002
 88.68800; 4.71213; 99.96285;-4.6907e-002
 90.18800; 4.77411; 99.96035;-3.4952e-002
 91.68800; 4.83580; 99.95846;-2.6958e-002
 93.18800; 4.89711; 99.95689;-2.6194e-002
 94.68800; 4.95817; 99.95504;-3.6233e-002
 96.18800; 5.01902; 99.95240;-4.9863e-002
 97.68800; 5.07959; 99.94920;-5.1818e-002
 99.18800; 5.13994; 99.94652;-3.3788e-002
100.688; 5.20019; 99.94525;-9.5387e-003
102.188; 5.26038; 99.94504;-1.2258e-003
103.688; 5.32048; 99.94469;-1.4325e-002
105.188; 5.38043; 99.94308;-4.0003e-002
106.688; 5.44023; 99.94009;-5.5900e-002
108.188; 5.50002; 99.93679;-5.2117e-002
109.688; 5.55981; 99.93381;-5.0199e-002
111.188; 5.61949; 99.93048;-6.4696e-002
112.688; 5.67912; 99.92592;-8.8653e-002
114.188; 5.73868; 99.92002;    -0.10634
115.688; 5.79810; 99.91380;-9.5906e-002
117.188; 5.85744; 99.90919;-5.6438e-002
118.688; 5.91683; 99.90703;-2.0033e-002
120.188; 5.97623; 99.90641;-4.4577e-003
121.688; 6.03551; 99.90624;-2.9294e-003
123.188; 6.09467; 99.90586;-1.1990e-002
124.688; 6.15374; 99.90462;-3.1931e-002
126.188; 6.21270; 99.90208;-5.2942e-002
127.688; 6.27164; 99.89858;-6.3749e-002
129.188; 6.33059; 99.89469;-6.7788e-002
130.688; 6.38949; 99.89056;-7.2740e-002
132.188; 6.44838; 99.88603;-8.3334e-002
133.688; 6.50725; 99.88051;    -0.10657
135.188; 6.56616; 99.87338;    -0.13435
136.688; 6.62510; 99.86503;    -0.14429
138.188; 6.68409; 99.85671;    -0.13640
139.688; 6.74313; 99.84869;    -0.14114
141.188; 6.80211; 99.83948;    -0.17508
142.688; 6.86108; 99.82814;    -0.20367
144.188; 6.92010; 99.81611;    -0.19764
145.688; 6.97928; 99.80505;    -0.17756
147.188; 7.03865; 99.79470;    -0.17601
148.688; 7.09794; 99.78374;    -0.19613
150.188; 7.15723; 99.77141;    -0.21937
151.688; 7.21667; 99.75789;    -0.23303
153.188; 7.27628; 99.74379;    -0.23888
154.688; 7.33608; 99.72944;    -0.24097
156.188; 7.39597; 99.71483;    -0.24891
157.688; 7.45590; 99.69936;    -0.26969
159.188; 7.51597; 99.68239;    -0.29482
160.688; 7.57623; 99.66396;    -0.31595
162.188; 7.63665; 99.64425;    -0.33737
163.688; 7.69719; 99.62301;    -0.36585
165.188; 7.75783; 99.59973;    -0.40411
166.688; 7.81858; 99.57376;    -0.45285
168.188; 7.87945; 99.54446;    -0.51180
169.688; 7.94045; 99.51121;    -0.57976
171.188; 8.00165; 99.47348;    -0.65431
172.688; 8.06302; 99.43088;    -0.73564
174.188; 8.12453; 99.38294;    -0.82358
175.688; 8.18610; 99.32964;    -0.90375
177.188; 8.24785; 99.27205;    -0.95532
178.688; 8.30973; 99.21200;    -0.98254
180.188; 8.37179; 99.15030;    -1.00730
181.688; 8.43397; 99.08670;    -1.04050
183.188; 8.49622; 99.02057;    -1.08745
184.688; 8.55856; 98.95085;    -1.15399
186.188; 8.62101; 98.87597;    -1.25367
187.688; 8.68362; 98.79264;    -1.42517
189.188; 8.74640; 98.69589;    -1.66008
190.688; 8.80943; 98.58498;    -1.83382
192.188; 8.87270; 98.46715;    -1.86887
193.688; 8.93614; 98.34893;    -1.86404
195.188; 8.99968; 98.22921;    -1.91637
196.688; 9.06333; 98.10437;    -2.01118
198.188; 9.12723; 97.97238;    -2.12192
199.688; 9.19145; 97.83219;    -2.24686
201.188; 9.25587; 97.68309;    -2.38347
202.688; 9.32044; 97.52466;    -2.52415
204.188; 9.38509; 97.35694;    -2.66521
205.688; 9.44995; 97.17920;    -2.82038
207.188; 9.51505; 96.98978;    -3.00406
208.688; 9.58023; 96.78738;    -3.20883
210.188; 9.64560; 96.57084;    -3.41273
211.688; 9.71124; 96.34078;    -3.59192
213.188; 9.77717; 96.09856;    -3.75522
214.688; 9.84330; 95.84450;    -3.93371
216.188; 9.90951; 95.57762;    -4.12888
217.688; 9.97590; 95.29671;    -4.33852
219.188;10.04255; 94.99949;    -4.59075
220.688;10.10940; 94.68308;    -4.87366
222.188;10.17632; 94.34855;    -5.11028
223.688;10.24330; 94.00045;    -5.27263
225.188;10.31052; 93.64150;    -5.40759
226.688;10.37788; 93.27241;    -5.55449
228.188;10.44535; 92.89200;    -5.72602
229.688;10.51299; 92.49852;    -5.90681
231.188;10.58081; 92.09256;    -6.05589
232.688;10.64865; 91.67811;    -6.15074
234.188;10.71646; 91.25960;    -6.18036
235.688;10.78422; 90.84196;    -6.13186
237.188;10.85205; 90.42964;    -6.01610
238.688;10.91989; 90.02652;    -5.86358
240.188;10.98756; 89.63549;    -5.68668
241.688;11.05505; 89.25895;    -5.45476
243.188;11.12231; 88.90302;    -5.09771
244.688;11.18938; 88.57781;    -4.56723
246.188;11.25620; 88.29482;    -3.87331
247.688;11.32262; 88.06483;    -3.02201
249.188;11.38868; 87.89629;    -2.07662
250.688;11.45422; 87.78944;    -1.21869
252.188;11.51923; 87.73158;    -0.61673
253.688;11.58395; 87.70375;    -0.28805
255.188;11.64857; 87.69068;    -0.14272
256.688;11.71308; 87.68327;    -0.10135
258.188;11.77767; 87.67665;    -0.10685
259.688;11.84242; 87.66957;    -0.10800
261.188;11.90731; 87.66300;-9.3243e-002
262.688;11.97243; 87.65739;-8.0771e-002
264.188;12.03777; 87.65229;-7.5718e-002
265.688;12.10339; 87.64750;-7.0043e-002
267.188;12.16927; 87.64297;-7.0428e-002
268.688;12.23538; 87.63780;-8.8667e-002
270.188;12.30179; 87.63123;    -0.10557
271.688;12.36843; 87.62436;-9.4640e-002
273.188;12.43538; 87.61918;-5.5372e-002
274.688;12.50253; 87.61729;-9.2563e-004
276.188;12.56989; 87.61863; 3.2835e-002
277.688;12.63752; 87.62055; 1.4264e-002
279.188;12.70527; 87.62004;-2.7780e-002
280.688;12.77313; 87.61751;-3.8914e-002
282.188;12.84132; 87.61528;-2.6482e-002
283.688;12.90970; 87.61359;-2.5587e-002
285.188;12.97834; 87.61180;-2.3027e-002
286.688;13.04731; 87.61070;-1.1567e-002
288.188;13.11643; 87.60924;-4.0460e-002
289.688;13.18546; 87.60483;-8.0038e-002
291.188;13.25468; 87.59957;-6.1108e-002
292.688;13.32422; 87.59679;-2.1655e-002
294.188;13.39396; 87.59594;-8.6051e-003
295.688;13.46391; 87.59501;-2.2021e-002
297.188;13.53396; 87.59265;-4.3556e-002
298.688;13.60412; 87.58949;-4.0598e-002
299.688;13.65096; 87.58792;-2.5474e-002