File: thermodynamics/5capacity/ExpDat_03882_Sapp-12.69mg-0.25mm_-30-180_10_Ar-20-.csv
#EXPORTTYPE:                 ,DATA SINGLE
#FILE:                       ,03882_Sapp-12.69mg-0.25mm_-30-180_10_Ar-20-70_03.04.12.dd3
#FORMAT:                     ,NETZSCH5
#FTYPE:                      ,ASCII
#IDENTITY:                   ,03882
#DECIMAL:                    ,POINT
#SEPARATOR:                  ,COMMA
#MTYPE:                      ,DSC
#INSTRUMENT:                 ,NETZSCH DSC 204F1
#PROJECT:                    ,'??<R?¿?Raai
#DATE/TIME:                  ,03-Apr-12 6:16:04 PM
#CORR. FILE:                 ,03881-2_bline_-30-180_10_Ar-20-70_03.04.12.bd3
#TEMPCAL:                    ,03060_Al-pirced_10_Ar-20-70_27.01.11.td3
#SENSITIVITY:                ,Senszero.exx
#LABORATORY:                 ,'?a¿Rý?-ÿ¿???
#OPERATOR:                   ,?a?e?-?R
#REMARK:                     ,
#SAMPLE:                     ,bline
#SAMPLE MASS /mg:            ,12.6900
#MATERIAL:                   ,??a
#REFERENCE:                  ,-?a
#REFERENCE MASS /mg:         ,0.0000
#TYPE OF CRUCIBLE:           ,Pan Al, pierced lid
#SAMPLE CRUCIBLE MASS /mg:   ,0.0000
#REFERENCE CRUCIBLE MASS /mg:,0.0000
#M.RANGE /cV:                ,5000
#TAU-R:                      ,---
#CORR. CODE:                 ,000
#EXO:                        ,+1
#RANGE:                      ,-30oC....180oC/0.0....10.0K/min
#SEGMENT:                    ,S1-3/3
#SEG. 1:                     ,-30oC/00:10/-30oC
#SEG. 2:                     ,-30oC/10.0(K/min)/180oC
#SEG. 3:                     ,180oC/00:10/180oC

##Temp./oC,Time/min,DSC/uV,Sensit./(uV/mW),Segment
-29.34800, 0.00000,    -1.02377,1.00000,1
-30.02004, 0.17000,    -0.81794,1.00000,1
-30.09218, 0.34000,    -0.42811,1.00000,1
-30.09843, 0.51000,    -1.05851,1.00000,1
-30.09576, 0.68000,    -1.36051,1.00000,1
-30.11122, 0.85000,    -1.41397,1.00000,1
-30.13351, 1.02000,    -1.37437,1.00000,1
-30.10930, 1.19000,    -1.31709,1.00000,1
-30.09031, 1.36000,    -1.24416,1.00000,1
-30.07749, 1.53000,    -1.19334,1.00000,1
-30.06876, 1.70000,    -1.14347,1.00000,1
-30.06280, 1.87000,    -1.10423,1.00000,1
-30.05839, 2.04000,    -1.07092,1.00000,1
-30.05492, 2.21000,    -1.04430,1.00000,1
-30.05235, 2.38000,    -1.01181,1.00000,1
-30.05024, 2.55000,    -0.99102,1.00000,1
-30.04846, 2.72000,    -0.96806,1.00000,1
-30.04696, 2.89000,    -0.95112,1.00000,1
-30.04582, 3.06000,    -0.92620,1.00000,1
-30.04482, 3.23000,    -0.91356,1.00000,1
-30.04341, 3.40000,    -0.89343,1.00000,1
-30.04193, 3.57000,    -0.88218,1.00000,1
-30.04070, 3.74000,    -0.87136,1.00000,1
-30.03965, 3.91000,    -0.85673,1.00000,1
-30.03833, 4.08000,    -0.84503,1.00000,1
-30.03681, 4.25000,    -0.83506,1.00000,1
-30.03553, 4.42000,    -0.82856,1.00000,1
-30.03408, 4.59000,    -0.81831,1.00000,1
-30.03266, 4.76000,    -0.80417,1.00000,1
-30.03111, 4.93000,    -0.79628,1.00000,1
-30.03012, 5.10000,    -0.78978,1.00000,1
-30.02906, 5.27000,    -0.78487,1.00000,1
-30.02783, 5.44000,    -0.77853,1.00000,1
-30.02645, 5.61000,    -0.76747,1.00000,1
-30.02518, 5.78000,    -0.76417,1.00000,1
-30.02407, 5.95000,    -0.75999,1.00000,1
-30.02297, 6.12000,    -0.75790,1.00000,1
-30.02218, 6.29000,    -0.74373,1.00000,1
-30.02104, 6.46000,    -0.74029,1.00000,1
-30.02003, 6.63000,    -0.74073,1.00000,1
-30.01918, 6.80000,    -0.73804,1.00000,1
-30.01809, 6.97000,    -0.73447,1.00000,1
-30.01706, 7.14000,    -0.72908,1.00000,1
-30.01569, 7.31000,    -0.72625,1.00000,1
-30.01484, 7.48000,    -0.72319,1.00000,1
-30.01429, 7.65000,    -0.71884,1.00000,1
-30.01334, 7.82000,    -0.71517,1.00000,1
-30.01262, 7.99000,    -0.71357,1.00000,1
-30.01191, 8.16000,    -0.70737,1.00000,1
-30.01131, 8.33000,    -0.69897,1.00000,1
-30.01059, 8.50000,    -0.70376,1.00000,1
-30.01033, 8.67000,    -0.69980,1.00000,1
-30.01031, 8.84000,    -0.69987,1.00000,1
-30.01061, 9.01000,    -0.68879,1.00000,1
-30.00730, 9.18000,    -0.69321,1.00000,1
-30.01053, 9.35000,    -0.69307,1.00000,1
-30.01005, 9.52000,    -0.68826,1.00000,1
-30.01052, 9.69000,    -0.68425,1.00000,1
-30.01023, 9.86000,    -0.67992,1.00000,1
-29.99903,10.03000,    -0.68770,1.00000,2
-28.17133,10.20000,     1.76866,1.00000,2
-26.23874,10.37000,    -1.10246,1.00000,2
-24.76039,10.54000,    -1.49176,1.00000,2
-23.23570,10.71000,    -1.27286,1.00000,2
-21.64640,10.88000,    -1.18113,1.00000,2
-20.00932,11.05000,    -1.15552,1.00000,2
-18.33866,11.22000,    -1.17301,1.00000,2
-16.64642,11.39000,    -1.19280,1.00000,2
-14.93912,11.56000,    -1.20092,1.00000,2
-13.22446,11.73000,    -1.21642,1.00000,2
-11.50508,11.90000,    -1.22194,1.00000,2
 -9.78327,12.07000,    -1.23798,1.00000,2
 -8.06121,12.24000,    -1.23707,1.00000,2
 -6.33782,12.41000,    -1.24381,1.00000,2
 -4.61498,12.58000,    -1.26524,1.00000,2
 -2.89377,12.75000,    -1.27233,1.00000,2
 -1.17322,12.92000,    -1.28027,1.00000,2
  0.54579,13.09000,    -1.29556,1.00000,2
  2.26396,13.26000,    -1.30893,1.00000,2
  3.98194,13.43000,    -1.31928,1.00000,2
  5.69706,13.60000,    -1.34949,1.00000,2
  7.41122,13.77000,    -1.35534,1.00000,2
  9.12560,13.94000,    -1.36986,1.00000,2
 10.83827,14.11000,    -1.38852,1.00000,2
 12.55056,14.28000,    -1.39625,1.00000,2
 14.26196,14.45000,    -1.41463,1.00000,2
 15.97183,14.62000,    -1.42687,1.00000,2
 17.68011,14.79000,    -1.44533,1.00000,2
 19.38812,14.96000,    -1.47034,1.00000,2
 21.09583,15.13000,    -1.48157,1.00000,2
 22.80339,15.30000,    -1.51094,1.00000,2
 24.51083,15.47000,    -1.52710,1.00000,2
 26.21687,15.64000,    -1.53658,1.00000,2
 27.92329,15.81000,    -1.55812,1.00000,2
 29.62904,15.98000,    -1.58236,1.00000,2
 31.33315,16.15000,    -1.59806,1.00000,2
 33.03789,16.32000,    -1.60760,1.00000,2
 34.74178,16.49000,    -1.63658,1.00000,2
 36.44512,16.66000,    -1.64293,1.00000,2
 38.14744,16.83000,    -1.66839,1.00000,2
 39.84986,17.00000,    -1.68438,1.00000,2
 41.55305,17.17000,    -1.69795,1.00000,2
 43.25534,17.34000,    -1.72468,1.00000,2
 44.95896,17.51000,    -1.74220,1.00000,2
 46.66225,17.68000,    -1.76834,1.00000,2
 48.36376,17.85000,    -1.77688,1.00000,2
 50.06675,18.02000,    -1.78458,1.00000,2
 51.76953,18.19000,    -1.81111,1.00000,2
 53.47048,18.36000,    -1.83372,1.00000,2
 55.17223,18.53000,    -1.84285,1.00000,2
 56.87451,18.70000,    -1.86572,1.00000,2
 58.57567,18.87000,    -1.87561,1.00000,2
 60.27723,19.04000,    -1.89916,1.00000,2
 61.97860,19.21000,    -1.91441,1.00000,2
 63.68067,19.38000,    -1.93217,1.00000,2
 65.38273,19.55000,    -1.94777,1.00000,2
 67.08341,19.72000,    -1.96822,1.00000,2
 68.78496,19.89000,    -1.97765,1.00000,2
 70.48710,20.06000,    -1.99991,1.00000,2
 72.18907,20.23000,    -2.01297,1.00000,2
 73.88993,20.40000,    -2.02440,1.00000,2
 75.58810,20.57000,    -2.04299,1.00000,2
 77.29036,20.74000,    -2.06200,1.00000,2
 78.99089,20.91000,    -2.08133,1.00000,2
 80.69197,21.08000,    -2.10573,1.00000,2
 82.39206,21.25000,    -2.10638,1.00000,2
 84.09354,21.42000,    -2.12955,1.00000,2
 85.79418,21.59000,    -2.14639,1.00000,2
 87.49482,21.76000,    -2.15828,1.00000,2
 89.19504,21.93000,    -2.17532,1.00000,2
 90.89482,22.10000,    -2.19062,1.00000,2
 92.59578,22.27000,    -2.20232,1.00000,2
 94.29766,22.44000,    -2.22183,1.00000,2
 95.99813,22.61000,    -2.23444,1.00000,2
 97.69922,22.78000,    -2.25182,1.00000,2
 99.40004,22.95000,    -2.27130,1.00000,2
101.099,23.12000,    -2.28000,1.00000,2
102.8,23.29000,    -2.29038,1.00000,2
104.502,23.46000,    -2.29984,1.00000,2
106.203,23.63000,    -2.31411,1.00000,2
107.904,23.80000,    -2.33338,1.00000,2
109.605,23.97000,    -2.34257,1.00000,2
111.305,24.14000,    -2.35843,1.00000,2
113.005,24.31000,    -2.35777,1.00000,2
114.706,24.48000,    -2.38345,1.00000,2
116.406,24.65000,    -2.38779,1.00000,2
118.107,24.82000,    -2.40549,1.00000,2
119.808,24.99000,    -2.42219,1.00000,2
121.507,25.16000,    -2.43149,1.00000,2
123.208,25.33000,    -2.44657,1.00000,2
124.909,25.50000,    -2.46074,1.00000,2
126.61,25.67000,    -2.47147,1.00000,2
128.311,25.84000,    -2.48011,1.00000,2
130.013,26.01000,    -2.50083,1.00000,2
131.709,26.18000,    -2.50310,1.00000,2
133.412,26.35000,    -2.51236,1.00000,2
135.113,26.52000,    -2.52906,1.00000,2
136.812,26.69000,    -2.54019,1.00000,2
138.511,26.86000,    -2.54608,1.00000,2
140.211,27.03000,    -2.56858,1.00000,2
141.911,27.20000,    -2.57430,1.00000,2
143.612,27.37000,    -2.58672,1.00000,2
145.313,27.54000,    -2.59652,1.00000,2
147.015,27.71000,    -2.61068,1.00000,2
148.716,27.88000,    -2.61887,1.00000,2
150.415,28.05000,    -2.62767,1.00000,2
152.114,28.22000,    -2.64078,1.00000,2
153.816,28.39000,    -2.64413,1.00000,2
155.517,28.56000,    -2.65914,1.00000,2
157.217,28.73000,    -2.66972,1.00000,2
158.918,28.90000,    -2.68124,1.00000,2
160.618,29.07000,    -2.69321,1.00000,2
162.319,29.24000,    -2.70050,1.00000,2
164.02,29.41000,    -2.70672,1.00000,2
165.72,29.58000,    -2.72584,1.00000,2
167.421,29.75000,    -2.72739,1.00000,2
169.121,29.92000,    -2.73734,1.00000,2
170.821,30.09000,    -2.74897,1.00000,2
172.522,30.26000,    -2.75630,1.00000,2
174.223,30.43000,    -2.77110,1.00000,2
175.923,30.60000,    -2.77545,1.00000,2
177.624,30.77000,    -2.78278,1.00000,2
179.324,30.94000,    -2.79882,1.00000,2
180.506,31.11000,    -3.21081,1.00000,3
180.519,31.28000,    -2.11438,1.00000,3
180.468,31.45000,-3.4218e-002,1.00000,3
180.425,31.62000,     0.43261,1.00000,3
180.388,31.79000,     0.42695,1.00000,3
180.389,31.96000,     0.35152,1.00000,3
180.333,32.13000,     0.28952,1.00000,3
180.297,32.30000,     0.24474,1.00000,3
180.272,32.47000,     0.21219,1.00000,3
180.252,32.64000,     0.19262,1.00000,3
180.236,32.81000,     0.17469,1.00000,3
180.222,32.98000,     0.16527,1.00000,3
180.209,33.15000,     0.15906,1.00000,3
180.197,33.32000,     0.14910,1.00000,3
180.185,33.49000,     0.14041,1.00000,3
180.174,33.66000,     0.13868,1.00000,3
180.163,33.83000,     0.13382,1.00000,3
180.153,34.00000,     0.12458,1.00000,3
180.143,34.17000,     0.11728,1.00000,3
180.133,34.34000,     0.11085,1.00000,3
180.124,34.51000,     0.10527,1.00000,3
180.116,34.68000,     0.10773,1.00000,3
180.107,34.85000, 9.5602e-002,1.00000,3
180.1,35.02000, 9.4676e-002,1.00000,3
180.093,35.19000, 8.8180e-002,1.00000,3
180.086,35.36000, 8.1652e-002,1.00000,3
180.079,35.53000, 8.0629e-002,1.00000,3
180.074,35.70000, 7.5450e-002,1.00000,3
180.068,35.87000, 7.1188e-002,1.00000,3
180.063,36.04000, 7.0614e-002,1.00000,3
180.059,36.21000, 6.4611e-002,1.00000,3
180.054,36.38000, 6.5844e-002,1.00000,3
180.05,36.55000, 6.0705e-002,1.00000,3
180.047,36.72000, 6.2248e-002,1.00000,3
180.043,36.89000, 5.6835e-002,1.00000,3
180.04,37.06000, 4.6786e-002,1.00000,3
180.037,37.23000, 5.1410e-002,1.00000,3
180.034,37.40000, 4.5649e-002,1.00000,3
180.032,37.57000, 4.5646e-002,1.00000,3
180.03,37.74000, 4.2542e-002,1.00000,3
180.028,37.91000, 4.3556e-002,1.00000,3
180.026,38.08000, 3.8226e-002,1.00000,3
180.025,38.25000, 3.6330e-002,1.00000,3
180.023,38.42000, 3.4817e-002,1.00000,3
180.022,38.59000, 3.2004e-002,1.00000,3
180.021,38.76000, 3.1727e-002,1.00000,3
180.02,38.93000, 3.2285e-002,1.00000,3
180.019,39.10000, 3.1602e-002,1.00000,3
180.018,39.27000, 2.9328e-002,1.00000,3
180.017,39.44000, 3.0675e-002,1.00000,3
180.016,39.61000, 2.4732e-002,1.00000,3
180.016,39.78000, 2.4310e-002,1.00000,3
180.015,39.95000, 2.3390e-002,1.00000,3
180.015,40.12000, 2.6072e-002,1.00000,3
180.014,40.29000, 1.7439e-002,1.00000,3
180.014,40.46000, 2.0851e-002,1.00000,3
180.013,40.63000, 2.5903e-002,1.00000,3
180.013,40.80000, 2.2808e-002,1.00000,3
180.013,40.91000, 2.2316e-002,1.00000,3